BAND       Spin up Energy(ev)               Occupation     Spin down Energy(ev)               Occupation                Kpoint = 1                        (0 0 0)
     1                  -11.161                 0.037037                 -10.2293                 0.037037
     2                 -9.42704                 0.037037                 -8.51475                 0.037037
     3                 -4.31183                 0.037037                 -4.00219                 0.037037
     4                 -4.31183                 0.037037                 -3.07503              1.88908e-08
     5                 -4.28627                 0.037037                 -3.07503              1.88908e-08
     6                 -2.91498              1.05619e-12                  -1.7524                        0
     7                 -2.91498              1.05619e-12                  -1.7524                        0
     8                -0.380246                        0                0.0582702                        0
     9                  3.14201                        0                  3.71938                        0
    10                  3.20245                        0                  4.03153                        0
    11                  3.20248                        0                  4.03153                        0
    12                  3.38462                        0                  4.22668                        0
    13                  3.38462                        0                  4.22671                        0
    14                  4.84973                        0                  5.42093                        0
    15                  4.84975                        0                  5.62358                        0
    16                  5.06622                        0                  5.87036                        0
    17                  5.15946                        0                  5.87038                        0
    18                  6.37173                        0                  7.00804                        0
    19                  6.37173                        0                  7.00804                        0
    20                  6.99843                        0                  7.75335                        0
    21                  6.99843                        0                  7.75335                        0
    22                  7.76622                        0                  7.94284                        0
    23                  9.63536                        0                  10.2446                        0
    24                  9.63536                        0                  10.3147                        0
    25                  9.69839                        0                  10.3147                        0
    26                  13.1371                        0                  13.6862                        0
    27                  13.1371                        0                  13.9713                        0
    28                  13.1788                        0                  13.9713                        0
    29                  13.4959                        0                   14.204                        0
    30                  13.4959                        0                  14.2041                        0
    31                  14.1059                        0                  15.1485                        0
    32                   14.106                        0                  15.1485                        0
    33                  15.4759                        0                  16.0308                        0
    34                  15.4759                        0                  16.0734                        0
    35                  15.4992                        0                  16.0734                        0
    36                  16.2599                        0                  16.7492                        0
    37                  19.6613                        0                   20.397                        0
    38                  21.5806                        0                  21.9915                        0
    39                  23.0692                        0                   24.014                        0
    40                  23.0692                        0                   24.014                        0
    41                  24.8282                        0                  25.0989                        0
    42                  25.0058                        0                  25.7963                        0
    43                  25.0058                        0                  25.7963                        0
    44                  28.9116                        0                  29.4429                        0
    45                   28.969                        0                  30.0032                        0
    46                  28.9691                        0                  30.0032                        0
    47                  29.5203                        0                   30.099                        0
    48                  29.5203                        0                   30.099                        0
    49                  30.3088                        0                  31.3267                        0
    50                  30.3089                        0                  31.3267                        0


BAND       Spin up Energy(ev)               Occupation     Spin down Energy(ev)               Occupation                Kpoint = 2                        (0 0.333333 0)
     1                  -11.161                 0.148148                 -10.2293                 0.148148
     2                 -9.42704                 0.148148                 -8.51475                 0.148148
     3                 -4.31183                 0.148148                 -4.00219                 0.148148
     4                 -4.31183                 0.148148                 -3.07503              7.55631e-08
     5                 -4.28627                 0.148148                 -3.07503              7.55631e-08
     6                 -2.91498              4.22477e-12                  -1.7524                        0
     7                 -2.91498              4.22477e-12                  -1.7524                        0
     8                -0.380246                        0                0.0582702                        0
     9                  3.14201                        0                  3.71938                        0
    10                  3.20245                        0                  4.03153                        0
    11                  3.20248                        0                  4.03153                        0
    12                  3.38462                        0                  4.22668                        0
    13                  3.38462                        0                  4.22671                        0
    14                  4.84973                        0                  5.42093                        0
    15                  4.84975                        0                  5.62358                        0
    16                  5.06622                        0                  5.87036                        0
    17                  5.15946                        0                  5.87038                        0
    18                  6.37173                        0                  7.00804                        0
    19                  6.37173                        0                  7.00804                        0
    20                  6.99843                        0                  7.75335                        0
    21                  6.99843                        0                  7.75335                        0
    22                  7.76622                        0                  7.94284                        0
    23                  9.63536                        0                  10.2446                        0
    24                  9.63536                        0                  10.3147                        0
    25                  9.69839                        0                  10.3147                        0
    26                  13.1371                        0                  13.6862                        0
    27                  13.1371                        0                  13.9713                        0
    28                  13.1788                        0                  13.9713                        0
    29                  13.4959                        0                   14.204                        0
    30                  13.4959                        0                  14.2041                        0
    31                  14.1059                        0                  15.1485                        0
    32                   14.106                        0                  15.1485                        0
    33                  15.4759                        0                  16.0308                        0
    34                  15.4759                        0                  16.0734                        0
    35                  15.4992                        0                  16.0734                        0
    36                  16.2599                        0                  16.7492                        0
    37                  19.6613                        0                   20.397                        0
    38                  21.5806                        0                  21.9915                        0
    39                  23.0692                        0                   24.014                        0
    40                  23.0692                        0                   24.014                        0
    41                  24.8282                        0                  25.0989                        0
    42                  25.0058                        0                  25.7963                        0
    43                  25.0058                        0                  25.7963                        0
    44                  28.9116                        0                  29.4429                        0
    45                   28.969                        0                  30.0032                        0
    46                  28.9691                        0                  30.0032                        0
    47                  29.5203                        0                   30.099                        0
    48                  29.5203                        0                   30.099                        0
    49                  30.3088                        0                  31.3267                        0
    50                  30.3089                        0                  31.3267                        0


BAND       Spin up Energy(ev)               Occupation     Spin down Energy(ev)               Occupation                Kpoint = 3                        (0.333333 0.333333 0)
     1                  -11.161                 0.148148                 -10.2293                 0.148148
     2                 -9.42704                 0.148148                 -8.51475                 0.148148
     3                 -4.31183                 0.148148                 -4.00219                 0.148148
     4                 -4.31183                 0.148148                 -3.07503              7.55631e-08
     5                 -4.28627                 0.148148                 -3.07503              7.55631e-08
     6                 -2.91498              4.22477e-12                  -1.7524                        0
     7                 -2.91498              4.22477e-12                  -1.7524                        0
     8                -0.380246                        0                0.0582702                        0
     9                  3.14201                        0                  3.71938                        0
    10                  3.20245                        0                  4.03153                        0
    11                  3.20248                        0                  4.03153                        0
    12                  3.38462                        0                  4.22668                        0
    13                  3.38462                        0                  4.22671                        0
    14                  4.84973                        0                  5.42093                        0
    15                  4.84975                        0                  5.62358                        0
    16                  5.06622                        0                  5.87036                        0
    17                  5.15946                        0                  5.87038                        0
    18                  6.37173                        0                  7.00804                        0
    19                  6.37173                        0                  7.00804                        0
    20                  6.99843                        0                  7.75335                        0
    21                  6.99843                        0                  7.75335                        0
    22                  7.76622                        0                  7.94284                        0
    23                  9.63536                        0                  10.2446                        0
    24                  9.63536                        0                  10.3147                        0
    25                  9.69839                        0                  10.3147                        0
    26                  13.1371                        0                  13.6862                        0
    27                  13.1371                        0                  13.9713                        0
    28                  13.1788                        0                  13.9713                        0
    29                  13.4959                        0                   14.204                        0
    30                  13.4959                        0                  14.2041                        0
    31                  14.1059                        0                  15.1485                        0
    32                   14.106                        0                  15.1485                        0
    33                  15.4759                        0                  16.0308                        0
    34                  15.4759                        0                  16.0734                        0
    35                  15.4992                        0                  16.0734                        0
    36                  16.2599                        0                  16.7492                        0
    37                  19.6613                        0                   20.397                        0
    38                  21.5806                        0                  21.9915                        0
    39                  23.0692                        0                   24.014                        0
    40                  23.0692                        0                   24.014                        0
    41                  24.8282                        0                  25.0989                        0
    42                  25.0058                        0                  25.7963                        0
    43                  25.0058                        0                  25.7963                        0
    44                  28.9116                        0                  29.4429                        0
    45                   28.969                        0                  30.0032                        0
    46                  28.9691                        0                  30.0032                        0
    47                  29.5203                        0                   30.099                        0
    48                  29.5203                        0                   30.099                        0
    49                  30.3088                        0                  31.3267                        0
    50                  30.3089                        0                  31.3267                        0


BAND       Spin up Energy(ev)               Occupation     Spin down Energy(ev)               Occupation                Kpoint = 4                        (0 0 -0.333333)
     1                  -11.161                0.0740741                 -10.2293                0.0740741
     2                 -9.42704                0.0740741                 -8.51475                0.0740741
     3                 -4.31183                0.0740741                 -4.00219                 0.074074
     4                 -4.31183                0.0740741                 -3.07503              3.77816e-08
     5                 -4.28627                0.0740741                 -3.07503              3.77816e-08
     6                 -2.91498              2.11238e-12                  -1.7524                        0
     7                 -2.91498              2.11238e-12                  -1.7524                        0
     8                -0.380246                        0                0.0582702                        0
     9                  3.14201                        0                  3.71938                        0
    10                  3.20245                        0                  4.03153                        0
    11                  3.20248                        0                  4.03153                        0
    12                  3.38462                        0                  4.22668                        0
    13                  3.38462                        0                  4.22671                        0
    14                  4.84973                        0                  5.42093                        0
    15                  4.84975                        0                  5.62358                        0
    16                  5.06622                        0                  5.87036                        0
    17                  5.15946                        0                  5.87038                        0
    18                  6.37173                        0                  7.00804                        0
    19                  6.37173                        0                  7.00804                        0
    20                  6.99843                        0                  7.75335                        0
    21                  6.99843                        0                  7.75335                        0
    22                  7.76622                        0                  7.94284                        0
    23                  9.63536                        0                  10.2446                        0
    24                  9.63536                        0                  10.3147                        0
    25                  9.69839                        0                  10.3147                        0
    26                  13.1371                        0                  13.6862                        0
    27                  13.1371                        0                  13.9713                        0
    28                  13.1788                        0                  13.9713                        0
    29                  13.4959                        0                   14.204                        0
    30                  13.4959                        0                  14.2041                        0
    31                  14.1059                        0                  15.1485                        0
    32                   14.106                        0                  15.1485                        0
    33                  15.4759                        0                  16.0308                        0
    34                  15.4759                        0                  16.0734                        0
    35                  15.4992                        0                  16.0734                        0
    36                  16.2599                        0                  16.7492                        0
    37                  19.6613                        0                   20.397                        0
    38                  21.5806                        0                  21.9915                        0
    39                  23.0692                        0                   24.014                        0
    40                  23.0692                        0                   24.014                        0
    41                  24.8282                        0                  25.0989                        0
    42                  25.0058                        0                  25.7963                        0
    43                  25.0058                        0                  25.7963                        0
    44                  28.9116                        0                  29.4429                        0
    45                   28.969                        0                  30.0032                        0
    46                  28.9691                        0                  30.0032                        0
    47                  29.5203                        0                   30.099                        0
    48                  29.5203                        0                   30.099                        0
    49                  30.3088                        0                  31.3267                        0
    50                  30.3089                        0                  31.3267                        0


BAND       Spin up Energy(ev)               Occupation     Spin down Energy(ev)               Occupation                Kpoint = 5                        (0 0.333333 0.333333)
     1                  -11.161                 0.296296                 -10.2293                 0.296296
     2                 -9.42704                 0.296296                 -8.51475                 0.296296
     3                 -4.31183                 0.296296                 -4.00219                 0.296296
     4                 -4.31183                 0.296296                 -3.07503              1.51126e-07
     5                 -4.28627                 0.296296                 -3.07503              1.51126e-07
     6                 -2.91498              8.44954e-12                  -1.7524                        0
     7                 -2.91498              8.44954e-12                  -1.7524                        0
     8                -0.380246                        0                0.0582702                        0
     9                  3.14201                        0                  3.71938                        0
    10                  3.20245                        0                  4.03153                        0
    11                  3.20248                        0                  4.03153                        0
    12                  3.38462                        0                  4.22668                        0
    13                  3.38462                        0                  4.22671                        0
    14                  4.84973                        0                  5.42093                        0
    15                  4.84975                        0                  5.62358                        0
    16                  5.06622                        0                  5.87036                        0
    17                  5.15946                        0                  5.87038                        0
    18                  6.37173                        0                  7.00804                        0
    19                  6.37173                        0                  7.00804                        0
    20                  6.99843                        0                  7.75335                        0
    21                  6.99843                        0                  7.75335                        0
    22                  7.76622                        0                  7.94284                        0
    23                  9.63536                        0                  10.2446                        0
    24                  9.63536                        0                  10.3147                        0
    25                  9.69839                        0                  10.3147                        0
    26                  13.1371                        0                  13.6862                        0
    27                  13.1371                        0                  13.9713                        0
    28                  13.1788                        0                  13.9713                        0
    29                  13.4959                        0                   14.204                        0
    30                  13.4959                        0                  14.2041                        0
    31                  14.1059                        0                  15.1485                        0
    32                   14.106                        0                  15.1485                        0
    33                  15.4759                        0                  16.0308                        0
    34                  15.4759                        0                  16.0734                        0
    35                  15.4992                        0                  16.0734                        0
    36                  16.2599                        0                  16.7492                        0
    37                  19.6613                        0                   20.397                        0
    38                  21.5806                        0                  21.9915                        0
    39                  23.0692                        0                   24.014                        0
    40                  23.0692                        0                   24.014                        0
    41                  24.8282                        0                  25.0989                        0
    42                  25.0058                        0                  25.7963                        0
    43                  25.0058                        0                  25.7963                        0
    44                  28.9116                        0                  29.4429                        0
    45                   28.969                        0                  30.0032                        0
    46                  28.9691                        0                  30.0032                        0
    47                  29.5203                        0                   30.099                        0
    48                  29.5203                        0                   30.099                        0
    49                  30.3088                        0                  31.3267                        0
    50                  30.3089                        0                  31.3267                        0


BAND       Spin up Energy(ev)               Occupation     Spin down Energy(ev)               Occupation                Kpoint = 6                        (0.333333 0.333333 -0.333333)
     1                  -11.161                 0.296296                 -10.2293                 0.296296
     2                 -9.42704                 0.296296                 -8.51475                 0.296296
     3                 -4.31183                 0.296296                 -4.00219                 0.296296
     4                 -4.31183                 0.296296                 -3.07503              1.51126e-07
     5                 -4.28627                 0.296296                 -3.07503              1.51126e-07
     6                 -2.91498              8.44954e-12                  -1.7524                        0
     7                 -2.91498              8.44954e-12                  -1.7524                        0
     8                -0.380246                        0                0.0582702                        0
     9                  3.14201                        0                  3.71938                        0
    10                  3.20245                        0                  4.03153                        0
    11                  3.20248                        0                  4.03153                        0
    12                  3.38462                        0                  4.22668                        0
    13                  3.38462                        0                  4.22671                        0
    14                  4.84973                        0                  5.42093                        0
    15                  4.84975                        0                  5.62358                        0
    16                  5.06622                        0                  5.87036                        0
    17                  5.15946                        0                  5.87038                        0
    18                  6.37173                        0                  7.00804                        0
    19                  6.37173                        0                  7.00804                        0
    20                  6.99843                        0                  7.75335                        0
    21                  6.99843                        0                  7.75335                        0
    22                  7.76622                        0                  7.94284                        0
    23                  9.63536                        0                  10.2446                        0
    24                  9.63536                        0                  10.3147                        0
    25                  9.69839                        0                  10.3147                        0
    26                  13.1371                        0                  13.6862                        0
    27                  13.1371                        0                  13.9713                        0
    28                  13.1788                        0                  13.9713                        0
    29                  13.4959                        0                   14.204                        0
    30                  13.4959                        0                  14.2041                        0
    31                  14.1059                        0                  15.1485                        0
    32                   14.106                        0                  15.1485                        0
    33                  15.4759                        0                  16.0308                        0
    34                  15.4759                        0                  16.0734                        0
    35                  15.4992                        0                  16.0734                        0
    36                  16.2599                        0                  16.7492                        0
    37                  19.6613                        0                   20.397                        0
    38                  21.5806                        0                  21.9915                        0
    39                  23.0692                        0                   24.014                        0
    40                  23.0692                        0                   24.014                        0
    41                  24.8282                        0                  25.0989                        0
    42                  25.0058                        0                  25.7963                        0
    43                  25.0058                        0                  25.7963                        0
    44                  28.9116                        0                  29.4429                        0
    45                   28.969                        0                  30.0032                        0
    46                  28.9691                        0                  30.0032                        0
    47                  29.5203                        0                   30.099                        0
    48                  29.5203                        0                   30.099                        0
    49                  30.3088                        0                  31.3267                        0
    50                  30.3089                        0                  31.3267                        0


